; (content of file C:\DIFFDAT1\FPraktikum\WS1819\BA-C-04\Roentgen_Glas.raw)
_FILEVERSION = 2
_SAMPLE = Glas
_+SAMPLE = 
_SITE = Münster
_USER = "Institut für Materialphysik"
_GONIOMETER_CODE = 0
; Goniometer : D5000 theta/2theta, stage : Unknown
_SAMPLE_CHANGER_CODE = 0
_ATTACHMENTS_CODE = 0
_GONIOMETER_RADIUS = 217.5
_FIXED_DIVSLIT = 0
_FIXED_SAMPLESLIT = 0
_FIXED_DETSLIT = 1
_MONOCHROMATOR = 0
; Incident beam monochromator : None
_SOLLER_SLITS_2 = N
_THIN_FILM = N
_BETA_FILTER = N
_FIXED_ANTISLIT = 0
_ANALYZER_CODE = 0
; Received beam analyzer : None
_DATEMEASURED = "07-Jan-2019 11:30:43"
_WL_UNIT = A
_WL1 = 1.5406
_WL2 = 1.54439
_WL3 = 1.39222
_WLRATIO = 0.5
_ANODE = Cu

; Data for range 1
_DRIVE = COUPLED
_STEPTIME = 2
_STEPSIZE = 0.02
_STEPMODE = C
_START = 20
_THETA = 10
_2THETA = 20
_KHI = 0
_PHI = 0
_X = 0
_Y = 0
_Z = 0
_DIVERGENCE = 0.992
_ANTISCATTER = 0.499
_DETECTOR = 1
; Detector type : Scintillation counter
_HV = 950
_GAIN = 80
_LLD = 0.8
_ULD = 1.6
_DETECTORSLIT = out
_AUX1 = 0
_AUX2 = 0
_AUX3 = 0
_TIMESTARTED = 7
_ROTATION_SPEED = 30
_TEMP_RATE = -1
_TEMP_DELAY = -1
_RANGE_WL = 1.5406
_3DPLANE = 0
_V4_COUNTERS_MASK = 1
_V4_DRIVES_MASK = 0
_V4_ENCODERS_MASK = 0
_2THETACOUNTS = 1
; 2THETA  Cnt1_D1
  20.0000          2
  20.0200          1
  20.0400          1
  20.0600          1
  20.0800          1
  20.1000          1
  20.1200          0
  20.1400          1
  20.1600          2
  20.1800          3
  20.2000          3
  20.2200          3
  20.2400          2
  20.2600          2
  20.2800          4
  20.3000          1
  20.3200          2
  20.3400          0
  20.3600          2
  20.3800          2
  20.4000          5
  20.4200          3
  20.4400          2
  20.4600          6
  20.4800          0
  20.5000          2
  20.5200          4
  20.5400          6
  20.5600          1
  20.5800          2
  20.6000          1
  20.6200          3
  20.6400          1
  20.6600          4
  20.6800          3
  20.7000          3
  20.7200          5
  20.7400          4
  20.7600          1
  20.7800          1
  20.8000          1
  20.8200          3
  20.8400          1
  20.8600          0
  20.8800          0
  20.9000          2
  20.9200          4
  20.9400          1
  20.9600          4
  20.9800          1
  21.0000          1
  21.0200          4
  21.0400          1
  21.0600          1
  21.0800          1
  21.1000          2
  21.1200          1
  21.1400          2
  21.1600          0
  21.1800          4
  21.2000          0
  21.2200          2
  21.2400          2
  21.2600          4
  21.2800          2
  21.3000          1
  21.3200          2
  21.3400          0
  21.3600          2
  21.3800          1
  21.4000          1
  21.4200          3
  21.4400          1
  21.4600          3
  21.4800          4
  21.5000          0
  21.5200          5
  21.5400          3
  21.5600          1
  21.5800          1
  21.6000          1
  21.6200          5
  21.6400          1
  21.6600          0
  21.6800          4
  21.7000          1
  21.7200          3
  21.7400          2
  21.7600          3
  21.7800          3
  21.8000          0
  21.8200          1
  21.8400          1
  21.8600          2
  21.8800          0
  21.9000          2
  21.9200          3
  21.9400          4
  21.9600          1
  21.9800          3
  22.0000          1
  22.0200          4
  22.0400          3
  22.0600          3
  22.0800          2
  22.1000          2
  22.1200          1
  22.1400          2
  22.1600          3
  22.1800          3
  22.2000          4
  22.2200          2
  22.2400          1
  22.2600          3
  22.2800          3
  22.3000          1
  22.3200          3
  22.3400          2
  22.3600          2
  22.3800          3
  22.4000          2
  22.4200          2
  22.4400          3
  22.4600          2
  22.4800          1
  22.5000          0
  22.5200          2
  22.5400          2
  22.5600          3
  22.5800          3
  22.6000          2
  22.6200          2
  22.6400          1
  22.6600          1
  22.6800          2
  22.7000          1
  22.7200          1
  22.7400          2
  22.7600          2
  22.7800          0
  22.8000          3
  22.8200          3
  22.8400          1
  22.8600          2
  22.8800          4
  22.9000          3
  22.9200          3
  22.9400          3
  22.9600          6
  22.9800          1
  23.0000          2
  23.0200          2
  23.0400          1
  23.0600          0
  23.0800          3
  23.1000          2
  23.1200          5
  23.1400          0
  23.1600          1
  23.1800          2
  23.2000          2
  23.2200          4
  23.2400          1
  23.2600          4
  23.2800          3
  23.3000          1
  23.3200          3
  23.3400          3
  23.3600          2
  23.3800          2
  23.4000          1
  23.4200          1
  23.4400          0
  23.4600          4
  23.4800          1
  23.5000          1
  23.5200          2
  23.5400          1
  23.5600          1
  23.5800          2
  23.6000          4
  23.6200          3
  23.6400          2
  23.6600          2
  23.6800          4
  23.7000          2
  23.7200          4
  23.7400          2
  23.7600          5
  23.7800          3
  23.8000          4
  23.8200          2
  23.8400          4
  23.8600          2
  23.8800          3
  23.9000          3
  23.9200          1
  23.9400          1
  23.9600          1
  23.9800          1
  24.0000          0
  24.0200          1
  24.0400          3
  24.0600          6
  24.0800          1
  24.1000          2
  24.1200          2
  24.1400          4
  24.1600          0
  24.1800          4
  24.2000          4
  24.2200          2
  24.2400          2
  24.2600          1
  24.2800          4
  24.3000          1
  24.3200          3
  24.3400          1
  24.3600          0
  24.3800          3
  24.4000          2
  24.4200          0
  24.4400          1
  24.4600          2
  24.4800          2
  24.5000          1
  24.5200          2
  24.5400          2
  24.5600          4
  24.5800          2
  24.6000          4
  24.6200          3
  24.6400          0
  24.6600          2
  24.6800          3
  24.7000          0
  24.7200          0
  24.7400          1
  24.7600          2
  24.7800          4
  24.8000          1
  24.8200          1
  24.8400          3
  24.8600          5
  24.8800          7
  24.9000          3
  24.9200          1
  24.9400          0
  24.9600          2
  24.9800          5
  25.0000          3
  25.0200          1
  25.0400          3
  25.0600          2
  25.0800          2
  25.1000          3
  25.1200          3
  25.1400          1
  25.1600          2
  25.1800          1
  25.2000          4
  25.2200          3
  25.2400          4
  25.2600          4
  25.2800          3
  25.3000          5
  25.3200          4
  25.3400          2
  25.3600          2
  25.3800          1
  25.4000          1
  25.4200          1
  25.4400          7
  25.4600          3
  25.4800          2
  25.5000          0
  25.5200          0
  25.5400          1
  25.5600          1
  25.5800          0
  25.6000          3
  25.6200          1
  25.6400          1
  25.6600          2
  25.6800          2
  25.7000          2
  25.7200          0
  25.7400          2
  25.7600          4
  25.7800          1
  25.8000          1
  25.8200          3
  25.8400          3
  25.8600          2
  25.8800          0
  25.9000          4
  25.9200          6
  25.9400          3
  25.9600          1
  25.9800          2
  26.0000          5
  26.0200          5
  26.0400          2
  26.0600          3
  26.0800          4
  26.1000          3
  26.1200          2
  26.1400          2
  26.1600          2
  26.1800          2
  26.2000          1
  26.2200          1
  26.2400          0
  26.2600          5
  26.2800          2
  26.3000          2
  26.3200          6
  26.3400          0
  26.3600          3
  26.3800          3
  26.4000          1
  26.4200          2
  26.4400          1
  26.4600          5
  26.4800          1
  26.5000          4
  26.5200          4
  26.5400          0
  26.5600          2
  26.5800          1
  26.6000          3
  26.6200          4
  26.6400          6
  26.6600          2
  26.6800          2
  26.7000          3
  26.7200          6
  26.7400          2
  26.7600          3
  26.7800          3
  26.8000          3
  26.8200          1
  26.8400          1
  26.8600          2
  26.8800          0
  26.9000          1
  26.9200          0
  26.9400          2
  26.9600          2
  26.9800          3
  27.0000          2
  27.0200          5
  27.0400          3
  27.0600          3
  27.0800          1
  27.1000          2
  27.1200          4
  27.1400          3
  27.1600          2
  27.1800          2
  27.2000          4
  27.2200          4
  27.2400          3
  27.2600          4
  27.2800          0
  27.3000          6
  27.3200          2
  27.3400          2
  27.3600          1
  27.3800          0
  27.4000          3
  27.4200          2
  27.4400          3
  27.4600          7
  27.4800          3
  27.5000          4
  27.5200          5
  27.5400          4
  27.5600          2
  27.5800          4
  27.6000          4
  27.6200          5
  27.6400          4
  27.6600          3
  27.6800          2
  27.7000          1
  27.7200          1
  27.7400          4
  27.7600          4
  27.7800          3
  27.8000          3
  27.8200          0
  27.8400          0
  27.8600          5
  27.8800          0
  27.9000          2
  27.9200          2
  27.9400          2
  27.9600          1
  27.9800          1
  28.0000          5
  28.0200          3
  28.0400          3
  28.0600          1
  28.0800          3
  28.1000          1
  28.1200          1
  28.1400          0
  28.1600          1
  28.1800          2
  28.2000          3
  28.2200          5
  28.2400          3
  28.2600          2
  28.2800          4
  28.3000          2
  28.3200          6
  28.3400          1
  28.3600          4
  28.3800          3
  28.4000          3
  28.4200          3
  28.4400          5
  28.4600          1
  28.4800          1
  28.5000          1
  28.5200          1
  28.5400          0
  28.5600          2
  28.5800          4
  28.6000          3
  28.6200          2
  28.6400          3
  28.6600          1
  28.6800          2
  28.7000          0
  28.7200          3
  28.7400          3
  28.7600          4
  28.7800          7
  28.8000          1
  28.8200          4
  28.8400          2
  28.8600          5
  28.8800          3
  28.9000          4
  28.9200          1
  28.9400          0
  28.9600          2
  28.9800          5
  29.0000          7
  29.0200          1
  29.0400          5
  29.0600          3
  29.0800          4
  29.1000          3
  29.1200          4
  29.1400          4
  29.1600          1
  29.1800          3
  29.2000          1
  29.2200          2
  29.2400          5
  29.2600          2
  29.2800          2
  29.3000          4
  29.3200          4
  29.3400          4
  29.3600          0
  29.3800          1
  29.4000          3
  29.4200          3
  29.4400          2
  29.4600          3
  29.4800          0
  29.5000          0
  29.5200          2
  29.5400          4
  29.5600          4
  29.5800          2
  29.6000          3
  29.6200          4
  29.6400          3
  29.6600          2
  29.6800          2
  29.7000          5
  29.7200          4
  29.7400          1
  29.7600          1
  29.7800          3
  29.8000          3
  29.8200          4
  29.8400          7
  29.8600          2
  29.8800          4
  29.9000          2
  29.9200          2
  29.9400          2
  29.9600          0
  29.9800          2
  30.0000          3
  30.0200          4
  30.0400          3
  30.0600          3
  30.0800          1
  30.1000          0
  30.1200          1
  30.1400          3
  30.1600          3
  30.1800          4
  30.2000          3
  30.2200          5
  30.2400          3
  30.2600          1
  30.2800          3
  30.3000          2
  30.3200          4
  30.3400          1
  30.3600          1
  30.3800          4
  30.4000          2
  30.4200          1
  30.4400          7
  30.4600          3
  30.4800          5
  30.5000          2
  30.5200          1
  30.5400          1
  30.5600          3
  30.5800          4
  30.6000          5
  30.6200          3
  30.6400          4
  30.6600          2
  30.6800          3
  30.7000          5
  30.7200          5
  30.7400          1
  30.7600          3
  30.7800          5
  30.8000          4
  30.8200          3
  30.8400          3
  30.8600          2
  30.8800          3
  30.9000          3
  30.9200          3
  30.9400          4
  30.9600          2
  30.9800          4
  31.0000          8
  31.0200          3
  31.0400          3
  31.0600          4
  31.0800          3
  31.1000          1
  31.1200          4
  31.1400          6
  31.1600          0
  31.1800          3
  31.2000          2
  31.2200          4
  31.2400          3
  31.2600          3
  31.2800          4
  31.3000          0
  31.3200          3
  31.3400          3
  31.3600          1
  31.3800          4
  31.4000          5
  31.4200          4
  31.4400          5
  31.4600          3
  31.4800          4
  31.5000          2
  31.5200          1
  31.5400          3
  31.5600          5
  31.5800          4
  31.6000          6
  31.6200          2
  31.6400          4
  31.6600          6
  31.6800          2
  31.7000          4
  31.7200          3
  31.7400          1
  31.7600          3
  31.7800          2
  31.8000          3
  31.8200          3
  31.8400          8
  31.8600          4
  31.8800          3
  31.9000          3
  31.9200          0
  31.9400          5
  31.9600          8
  31.9800          6
  32.0000          5
  32.0200          4
  32.0400          4
  32.0600          6
  32.0800          2
  32.1000          1
  32.1200          1
  32.1400          5
  32.1600          2
  32.1800          3
  32.2000          5
  32.2200          4
  32.2400          3
  32.2600          4
  32.2800          9
  32.3000          3
  32.3200          3
  32.3400          2
  32.3600          2
  32.3800          5
  32.4000          3
  32.4200          4
  32.4400          3
  32.4600          5
  32.4800          7
  32.5000          2
  32.5200          5
  32.5400          4
  32.5600          5
  32.5800          6
  32.6000          4
  32.6200          2
  32.6400          4
  32.6600          4
  32.6800          7
  32.7000          2
  32.7200          3
  32.7400          0
  32.7600          4
  32.7800         10
  32.8000          4
  32.8200          6
  32.8400          2
  32.8600          0
  32.8800          3
  32.9000          5
  32.9200          2
  32.9400          4
  32.9600          5
  32.9800          6
  33.0000          2
  33.0200          2
  33.0400          6
  33.0600          2
  33.0800          6
  33.1000          3
  33.1200          2
  33.1400          2
  33.1600          9
  33.1800          3
  33.2000          5
  33.2200          5
  33.2400          2
  33.2600          2
  33.2800          3
  33.3000          6
  33.3200          5
  33.3400          1
  33.3600          7
  33.3800          6
  33.4000          5
  33.4200          5
  33.4400          6
  33.4600          2
  33.4800          5
  33.5000          5
  33.5200          7
  33.5400          3
  33.5600          7
  33.5800          7
  33.6000          8
  33.6200          3
  33.6400          5
  33.6600          3
  33.6800          5
  33.7000          3
  33.7200          4
  33.7400          5
  33.7600          1
  33.7800          4
  33.8000          5
  33.8200          8
  33.8400          5
  33.8600          5
  33.8800          3
  33.9000          3
  33.9200          7
  33.9400          5
  33.9600          3
  33.9800          5
  34.0000          5
  34.0200          7
  34.0400          1
  34.0600          4
  34.0800          2
  34.1000          5
  34.1200          4
  34.1400          7
  34.1600          6
  34.1800          2
  34.2000          8
  34.2200          7
  34.2400          4
  34.2600          5
  34.2800          5
  34.3000          6
  34.3200          6
  34.3400          5
  34.3600          2
  34.3800          2
  34.4000          5
  34.4200          6
  34.4400          2
  34.4600          3
  34.4800          5
  34.5000          3
  34.5200          3
  34.5400          7
  34.5600          7
  34.5800          9
  34.6000          2
  34.6200          4
  34.6400          5
  34.6600          6
  34.6800          7
  34.7000          5
  34.7200          6
  34.7400          5
  34.7600          6
  34.7800          8
  34.8000          8
  34.8200          8
  34.8400         12
  34.8600          3
  34.8800          2
  34.9000          2
  34.9200          6
  34.9400          6
  34.9600          6
  34.9800          3
  35.0000          4
  35.0200          3
  35.0400          3
  35.0600          6
  35.0800          8
  35.1000         10
  35.1200          6
  35.1400          3
  35.1600          6
  35.1800          8
  35.2000          5
  35.2200          4
  35.2400          7
  35.2600          6
  35.2800          7
  35.3000          2
  35.3200          7
  35.3400          7
  35.3600          6
  35.3800          4
  35.4000          8
  35.4200          8
  35.4400          3
  35.4600          1
  35.4800          9
  35.5000          7
  35.5200          8
  35.5400          5
  35.5600          9
  35.5800          7
  35.6000          8
  35.6200          7
  35.6400          6
  35.6600          9
  35.6800          5
  35.7000          7
  35.7200          4
  35.7400          7
  35.7600          6
  35.7800          8
  35.8000          6
  35.8200          6
  35.8400          6
  35.8600          6
  35.8800          5
  35.9000          8
  35.9200          4
  35.9400         12
  35.9600          3
  35.9800          8
  36.0000         16
  36.0200          7
  36.0400         11
  36.0600          8
  36.0800         13
  36.1000         10
  36.1200         12
  36.1400          9
  36.1600          4
  36.1800         11
  36.2000          9
  36.2200         10
  36.2400          8
  36.2600         13
  36.2800          6
  36.3000         11
  36.3200          8
  36.3400          9
  36.3600         13
  36.3800          8
  36.4000          7
  36.4200          9
  36.4400          7
  36.4600         10
  36.4800         11
  36.5000          6
  36.5200          6
  36.5400          7
  36.5600          7
  36.5800          6
  36.6000          6
  36.6200          4
  36.6400          4
  36.6600         13
  36.6800         11
  36.7000         12
  36.7200          9
  36.7400          2
  36.7600         13
  36.7800         11
  36.8000         13
  36.8200          5
  36.8400          7
  36.8600         11
  36.8800          8
  36.9000          6
  36.9200          7
  36.9400          9
  36.9600          5
  36.9800         11
  37.0000         10
  37.0200          7
  37.0400         14
  37.0600         10
  37.0800          9
  37.1000         11
  37.1200         10
  37.1400          9
  37.1600         11
  37.1800          4
  37.2000         10
  37.2200         10
  37.2400          7
  37.2600          8
  37.2800          8
  37.3000         10
  37.3200         11
  37.3400         13
  37.3600          6
  37.3800         12
  37.4000         11
  37.4200         18
  37.4400         13
  37.4600         11
  37.4800         11
  37.5000          8
  37.5200          8
  37.5400         14
  37.5600         13
  37.5800          9
  37.6000         12
  37.6200         13
  37.6400         10
  37.6600          8
  37.6800         12
  37.7000         15
  37.7200          8
  37.7400         14
  37.7600         19
  37.7800         10
  37.8000          6
  37.8200         14
  37.8400         15
  37.8600         16
  37.8800          8
  37.9000          8
  37.9200         12
  37.9400         13
  37.9600         10
  37.9800         15
  38.0000         10
  38.0200         13
  38.0400         12
  38.0600         19
  38.0800         11
  38.1000         11
  38.1200         12
  38.1400         10
  38.1600         12
  38.1800         16
  38.2000         12
  38.2200         12
  38.2400         17
  38.2600         11
  38.2800         21
  38.3000          8
  38.3200         10
  38.3400         10
  38.3600         21
  38.3800          5
  38.4000         10
  38.4200         14
  38.4400         10
  38.4600         18
  38.4800         15
  38.5000         14
  38.5200         16
  38.5400          9
  38.5600         11
  38.5800         10
  38.6000         16
  38.6200         16
  38.6400         18
  38.6600         13
  38.6800         15
  38.7000         21
  38.7200         11
  38.7400         15
  38.7600         15
  38.7800         10
  38.8000         10
  38.8200         15
  38.8400         16
  38.8600         16
  38.8800         15
  38.9000         14
  38.9200         16
  38.9400         14
  38.9600         10
  38.9800         19
  39.0000         21
  39.0200         22
  39.0400          9
  39.0600         30
  39.0800         24
  39.1000         12
  39.1200         14
  39.1400         15
  39.1600         13
  39.1800         17
  39.2000         27
  39.2200         18
  39.2400         14
  39.2600         11
  39.2800         19
  39.3000         14
  39.3200         18
  39.3400         23
  39.3600         15
  39.3800         17
  39.4000         26
  39.4200         12
  39.4400         21
  39.4600         20
  39.4800         21
  39.5000         17
  39.5200         17
  39.5400         17
  39.5600         17
  39.5800         15
  39.6000         16
  39.6200         13
  39.6400         22
  39.6600         17
  39.6800         12
  39.7000         13
  39.7200         13
  39.7400         16
  39.7600         23
  39.7800         18
  39.8000         18
  39.8200         22
  39.8400         17
  39.8600         33
  39.8800         17
  39.9000         20
  39.9200         24
  39.9400         14
  39.9600         21
  39.9800         18
  40.0000         19
  40.0200         16
  40.0400         19
  40.0600         23
  40.0800         24
  40.1000         21
  40.1200         16
  40.1400         11
  40.1600          9
  40.1800         24
  40.2000         17
  40.2200          9
  40.2400         17
  40.2600         15
  40.2800         18
  40.3000         21
  40.3200         20
  40.3400         13
  40.3600         17
  40.3800         21
  40.4000         16
  40.4200         21
  40.4400         17
  40.4600         21
  40.4800         24
  40.5000         12
  40.5200         25
  40.5400         16
  40.5600         23
  40.5800         26
  40.6000         19
  40.6200         22
  40.6400         20
  40.6600         22
  40.6800         25
  40.7000         20
  40.7200         18
  40.7400         32
  40.7600         34
  40.7800         21
  40.8000         16
  40.8200         21
  40.8400         23
  40.8600         28
  40.8800         17
  40.9000         18
  40.9200         12
  40.9400         21
  40.9600         24
  40.9800         32
  41.0000         20
  41.0200         23
  41.0400         21
  41.0600         21
  41.0800         25
  41.1000         20
  41.1200         15
  41.1400         22
  41.1600         20
  41.1800         22
  41.2000         15
  41.2200         20
  41.2400         26
  41.2600         18
  41.2800         24
  41.3000         22
  41.3200         30
  41.3400         21
  41.3600         25
  41.3800         29
  41.4000         23
  41.4200         23
  41.4400         22
  41.4600         21
  41.4800         19
  41.5000         32
  41.5200         24
  41.5400         33
  41.5600         16
  41.5800         26
  41.6000         24
  41.6200         20
  41.6400         24
  41.6600         23
  41.6800         24
  41.7000         24
  41.7200         20
  41.7400         18
  41.7600         24
  41.7800         22
  41.8000         29
  41.8200         27
  41.8400         31
  41.8600         31
  41.8800         21
  41.9000         22
  41.9200         24
  41.9400         26
  41.9600         23
  41.9800         26
  42.0000         20
  42.0200         25
  42.0400         21
  42.0600         37
  42.0800         27
  42.1000         22
  42.1200         32
  42.1400         20
  42.1600         20
  42.1800         23
  42.2000         32
  42.2200         26
  42.2400         25
  42.2600         21
  42.2800         23
  42.3000         30
  42.3200         18
  42.3400         26
  42.3600         30
  42.3800         24
  42.4000         22
  42.4200         18
  42.4400         34
  42.4600         23
  42.4800         25
  42.5000         19
  42.5200         23
  42.5400         19
  42.5600         25
  42.5800         21
  42.6000         29
  42.6200         32
  42.6400         18
  42.6600         37
  42.6800         30
  42.7000         27
  42.7200         20
  42.7400         21
  42.7600         15
  42.7800         39
  42.8000         27
  42.8200         17
  42.8400         34
  42.8600         27
  42.8800         25
  42.9000         23
  42.9200         26
  42.9400         29
  42.9600         27
  42.9800         35
  43.0000         21
  43.0200         32
  43.0400         35
  43.0600         26
  43.0800         27
  43.1000         22
  43.1200         16
  43.1400         24
  43.1600         26
  43.1800         18
  43.2000         29
  43.2200         25
  43.2400         25
  43.2600         15
  43.2800         25
  43.3000         21
  43.3200         23
  43.3400         25
  43.3600         20
  43.3800         23
  43.4000         26
  43.4200         25
  43.4400         25
  43.4600         25
  43.4800         22
  43.5000         18
  43.5200         21
  43.5400         22
  43.5600         17
  43.5800         20
  43.6000         25
  43.6200         17
  43.6400         16
  43.6600         16
  43.6800          9
  43.7000         15
  43.7200         22
  43.7400         17
  43.7600         25
  43.7800         27
  43.8000         20
  43.8200         24
  43.8400         14
  43.8600         13
  43.8800         18
  43.9000         20
  43.9200         18
  43.9400         25
  43.9600         19
  43.9800         22
  44.0000         17
  44.0200         18
  44.0400         17
  44.0600         13
  44.0800         20
  44.1000         17
  44.1200         20
  44.1400         14
  44.1600         16
  44.1800         26
  44.2000         18
  44.2200         21
  44.2400         20
  44.2600         20
  44.2800         18
  44.3000         25
  44.3200         20
  44.3400         20
  44.3600         23
  44.3800         21
  44.4000         17
  44.4200         21
  44.4400         12
  44.4600         26
  44.4800         22
  44.5000         14
  44.5200         10
  44.5400         19
  44.5600         13
  44.5800         25
  44.6000         25
  44.6200         18
  44.6400         10
  44.6600         19
  44.6800         10
  44.7000         19
  44.7200         16
  44.7400         20
  44.7600         24
  44.7800          9
  44.8000         13
  44.8200         18
  44.8400         21
  44.8600         15
  44.8800         16
  44.9000         20
  44.9200         18
  44.9400         20
  44.9600         19
  44.9800         10
  45.0000         16
  45.0200         12
  45.0400         10
  45.0600         10
  45.0800         14
  45.1000         10
  45.1200         13
  45.1400         18
  45.1600         22
  45.1800         20
  45.2000         19
  45.2200         15
  45.2400         17
  45.2600         11
  45.2800         19
  45.3000         11
  45.3200         11
  45.3400         12
  45.3600         15
  45.3800         16
  45.4000         11
  45.4200         16
  45.4400         16
  45.4600         20
  45.4800         15
  45.5000         10
  45.5200         17
  45.5400         19
  45.5600         10
  45.5800          9
  45.6000         16
  45.6200         15
  45.6400         19
  45.6600          9
  45.6800         14
  45.7000         14
  45.7200         14
  45.7400         19
  45.7600         16
  45.7800         16
  45.8000         13
  45.8200         12
  45.8400         19
  45.8600         16
  45.8800          9
  45.9000         15
  45.9200          8
  45.9400         20
  45.9600         17
  45.9800         12
  46.0000          7
  46.0200         19
  46.0400         16
  46.0600          8
  46.0800         13
  46.1000         17
  46.1200         14
  46.1400         15
  46.1600         13
  46.1800          9
  46.2000         15
  46.2200         10
  46.2400         16
  46.2600         12
  46.2800          9
  46.3000         11
  46.3200         12
  46.3400          7
  46.3600         15
  46.3800         11
  46.4000         12
  46.4200         13
  46.4400          8
  46.4600         10
  46.4800         13
  46.5000         17
  46.5200          7
  46.5400          7
  46.5600          9
  46.5800         15
  46.6000         15
  46.6200          6
  46.6400         14
  46.6600         10
  46.6800         12
  46.7000         14
  46.7200         11
  46.7400          3
  46.7600          9
  46.7800          5
  46.8000         11
  46.8200         11
  46.8400         25
  46.8600         11
  46.8800         13
  46.9000         10
  46.9200          8
  46.9400         11
  46.9600         14
  46.9800          5
  47.0000         13
  47.0200          9
  47.0400          7
  47.0600         12
  47.0800         12
  47.1000          8
  47.1200         15
  47.1400         14
  47.1600         14
  47.1800         11
  47.2000         12
  47.2200         10
  47.2400          9
  47.2600          9
  47.2800         13
  47.3000          6
  47.3200         10
  47.3400         11
  47.3600         10
  47.3800         13
  47.4000          4
  47.4200         13
  47.4400          5
  47.4600         11
  47.4800          9
  47.5000         10
  47.5200         10
  47.5400          7
  47.5600          9
  47.5800         13
  47.6000          5
  47.6200          6
  47.6400          8
  47.6600          5
  47.6800          4
  47.7000          9
  47.7200          8
  47.7400         10
  47.7600         12
  47.7800          8
  47.8000          5
  47.8200          6
  47.8400          9
  47.8600         13
  47.8800          6
  47.9000          7
  47.9200          8
  47.9400          7
  47.9600         11
  47.9800          9
  48.0000         10
  48.0200          8
  48.0400          5
  48.0600          6
  48.0800         11
  48.1000         11
  48.1200          4
  48.1400          9
  48.1600          6
  48.1800         10
  48.2000          6
  48.2200          8
  48.2400         10
  48.2600          6
  48.2800         11
  48.3000          7
  48.3200          9
  48.3400         10
  48.3600          3
  48.3800          5
  48.4000          8
  48.4200          7
  48.4400         11
  48.4600          8
  48.4800         10
  48.5000          8
  48.5200          9
  48.5400          9
  48.5600         14
  48.5800          6
  48.6000          7
  48.6200          2
  48.6400          4
  48.6600         10
  48.6800         10
  48.7000          3
  48.7200          6
  48.7400         11
  48.7600         12
  48.7800         14
  48.8000          9
  48.8200          2
  48.8400         10
  48.8600          4
  48.8800          4
  48.9000          9
  48.9200          6
  48.9400         10
  48.9600          8
  48.9800          7
  49.0000          4
  49.0200         10
  49.0400         10
  49.0600          5
  49.0800         11
  49.1000          9
  49.1200          6
  49.1400         10
  49.1600          4
  49.1800          5
  49.2000          9
  49.2200          2
  49.2400         12
  49.2600          9
  49.2800          4
  49.3000          7
  49.3200          9
  49.3400          8
  49.3600          3
  49.3800          3
  49.4000          5
  49.4200          4
  49.4400          6
  49.4600          9
  49.4800          7
  49.5000          9
  49.5200         11
  49.5400          4
  49.5600          8
  49.5800          4
  49.6000          8
  49.6200         11
  49.6400          5
  49.6600          9
  49.6800          5
  49.7000          8
  49.7200          7
  49.7400          6
  49.7600          8
  49.7800          8
  49.8000         10
  49.8200          6
  49.8400          5
  49.8600         11
  49.8800          8
  49.9000          9
  49.9200          6
  49.9400          9
  49.9600          7
  49.9800          7
  50.0000          1
  50.0200          8
  50.0400          8
  50.0600          2
  50.0800         10
  50.1000          6
  50.1200          4
  50.1400          7
  50.1600          3
  50.1800         11
  50.2000          6
  50.2200          6
  50.2400          2
  50.2600          4
  50.2800          5
  50.3000          3
  50.3200          7
  50.3400          4
  50.3600          5
  50.3800          3
  50.4000          3
  50.4200          7
  50.4400          7
  50.4600          5
  50.4800          7
  50.5000          6
  50.5200          4
  50.5400          5
  50.5600          6
  50.5800          3
  50.6000         10
  50.6200          7
  50.6400          9
  50.6600          7
  50.6800          2
  50.7000         12
  50.7200          4
  50.7400          5
  50.7600          8
  50.7800          9
  50.8000          9
  50.8200          8
  50.8400          8
  50.8600          4
  50.8800          3
  50.9000          8
  50.9200          7
  50.9400          4
  50.9600          2
  50.9800          5
  51.0000          5
  51.0200          2
  51.0400          4
  51.0600          4
  51.0800          0
  51.1000          6
  51.1200          8
  51.1400          7
  51.1600          3
  51.1800          2
  51.2000          7
  51.2200          4
  51.2400          6
  51.2600          5
  51.2800          9
  51.3000          7
  51.3200          2
  51.3400          9
  51.3600          5
  51.3800          4
  51.4000          8
  51.4200          7
  51.4400          4
  51.4600          5
  51.4800         10
  51.5000          3
  51.5200          2
  51.5400          6
  51.5600          8
  51.5800          3
  51.6000          7
  51.6200          5
  51.6400          5
  51.6600          5
  51.6800          3
  51.7000          3
  51.7200          4
  51.7400         12
  51.7600          6
  51.7800          7
  51.8000          2
  51.8200          4
  51.8400          4
  51.8600          4
  51.8800          7
  51.9000          6
  51.9200          9
  51.9400          3
  51.9600          8
  51.9800          8
  52.0000          4
  52.0200          8
  52.0400          5
  52.0600          6
  52.0800          5
  52.1000          7
  52.1200          9
  52.1400          5
  52.1600          4
  52.1800          3
  52.2000          6
  52.2200          4
  52.2400          4
  52.2600          1
  52.2800          4
  52.3000          6
  52.3200          6
  52.3400          4
  52.3600          4
  52.3800          5
  52.4000          5
  52.4200          3
  52.4400          4
  52.4600          5
  52.4800          5
  52.5000          5
  52.5200          1
  52.5400          6
  52.5600          1
  52.5800          1
  52.6000          7
  52.6200          1
  52.6400          6
  52.6600          4
  52.6800          4
  52.7000          6
  52.7200          7
  52.7400          4
  52.7600          7
  52.7800          4
  52.8000          5
  52.8200          1
  52.8400          7
  52.8600          2
  52.8800          4
  52.9000          7
  52.9200          3
  52.9400          3
  52.9600          6
  52.9800          4
  53.0000          3
  53.0200          9
  53.0400          5
  53.0600          5
  53.0800          7
  53.1000          8
  53.1200          3
  53.1400          6
  53.1600          2
  53.1800          3
  53.2000          7
  53.2200          3
  53.2400          3
  53.2600          1
  53.2800          6
  53.3000          1
  53.3200          1
  53.3400          5
  53.3600          4
  53.3800          2
  53.4000          8
  53.4200          4
  53.4400          3
  53.4600          2
  53.4800          2
  53.5000          5
  53.5200          4
  53.5400          4
  53.5600          3
  53.5800          1
  53.6000         10
  53.6200          5
  53.6400          3
  53.6600          5
  53.6800          3
  53.7000          4
  53.7200          2
  53.7400          5
  53.7600          3
  53.7800          7
  53.8000          5
  53.8200          1
  53.8400          7
  53.8600          2
  53.8800          3
  53.9000          1
  53.9200          4
  53.9400          3
  53.9600          3
  53.9800          3
  54.0000          2
  54.0200          0
  54.0400          4
  54.0600          5
  54.0800          2
  54.1000          5
  54.1200          7
  54.1400          5
  54.1600          5
  54.1800          6
  54.2000          5
  54.2200          4
  54.2400          1
  54.2600          5
  54.2800          2
  54.3000          1
  54.3200          3
  54.3400          5
  54.3600          1
  54.3800          3
  54.4000          5
  54.4200          5
  54.4400          4
  54.4600          4
  54.4800          3
  54.5000          3
  54.5200          2
  54.5400          2
  54.5600          6
  54.5800          2
  54.6000          4
  54.6200          2
  54.6400          6
  54.6600          4
  54.6800          5
  54.7000          4
  54.7200          5
  54.7400          2
  54.7600          4
  54.7800          5
  54.8000          5
  54.8200          8
  54.8400          5
  54.8600          5
  54.8800          3
  54.9000          4
  54.9200          2
  54.9400          6
  54.9600          2
  54.9800          2
  55.0000          4
  55.0200          2
  55.0400          5
  55.0600          3
  55.0800          6
  55.1000          7
  55.1200          2
  55.1400         10
  55.1600          3
  55.1800          4
  55.2000          3
  55.2200          7
  55.2400          1
  55.2600          4
  55.2800          4
  55.3000          7
  55.3200          2
  55.3400          4
  55.3600          6
  55.3800          3
  55.4000          4
  55.4200          3
  55.4400          3
  55.4600          5
  55.4800          5
  55.5000          4
  55.5200          6
  55.5400          5
  55.5600          5
  55.5800          4
  55.6000          2
  55.6200          3
  55.6400          6
  55.6600          7
  55.6800          1
  55.7000          5
  55.7200          3
  55.7400          3
  55.7600          2
  55.7800          3
  55.8000          4
  55.8200          2
  55.8400          1
  55.8600          7
  55.8800          4
  55.9000          1
  55.9200          2
  55.9400          2
  55.9600          4
  55.9800          2
  56.0000          2
  56.0200          1
  56.0400          7
  56.0600          6
  56.0800          1
  56.1000          3
  56.1200          3
  56.1400          5
  56.1600          7
  56.1800          2
  56.2000          1
  56.2200          5
  56.2400          4
  56.2600          3
  56.2800          2
  56.3000          4
  56.3200          2
  56.3400          3
  56.3600          4
  56.3800          5
  56.4000          2
  56.4200          1
  56.4400          5
  56.4600          3
  56.4800          6
  56.5000          6
  56.5200          4
  56.5400          5
  56.5600          3
  56.5800          4
  56.6000          7
  56.6200          5
  56.6400          3
  56.6600          7
  56.6800          7
  56.7000          1
  56.7200          4
  56.7400          6
  56.7600          1
  56.7800          4
  56.8000          2
  56.8200          1
  56.8400         10
  56.8600          4
  56.8800          5
  56.9000          4
  56.9200          3
  56.9400          3
  56.9600          6
  56.9800          6
  57.0000          2
  57.0200          4
  57.0400          2
  57.0600          3
  57.0800          4
  57.1000          7
  57.1200          2
  57.1400          3
  57.1600          0
  57.1800          6
  57.2000          5
  57.2200          6
  57.2400          3
  57.2600          0
  57.2800          2
  57.3000          2
  57.3200          3
  57.3400          7
  57.3600          5
  57.3800          4
  57.4000          3
  57.4200          0
  57.4400          5
  57.4600          1
  57.4800          2
  57.5000          0
  57.5200          3
  57.5400          2
  57.5600          5
  57.5800          2
  57.6000          6
  57.6200          5
  57.6400          2
  57.6600          3
  57.6800          1
  57.7000          3
  57.7200          3
  57.7400          8
  57.7600          7
  57.7800          2
  57.8000          4
  57.8200          4
  57.8400          0
  57.8600          3
  57.8800          5
  57.9000          4
  57.9200          1
  57.9400          6
  57.9600          7
  57.9800          4
  58.0000          2
  58.0200          7
  58.0400          7
  58.0600          5
  58.0800          2
  58.1000          3
  58.1200          5
  58.1400          3
  58.1600          1
  58.1800          4
  58.2000          3
  58.2200          2
  58.2400          5
  58.2600          3
  58.2800          4
  58.3000          3
  58.3200          5
  58.3400          1
  58.3600          7
  58.3800          3
  58.4000          0
  58.4200          8
  58.4400          2
  58.4600          3
  58.4800          1
  58.5000          3
  58.5200          3
  58.5400          2
  58.5600          5
  58.5800          7
  58.6000          2
  58.6200          3
  58.6400          2
  58.6600          4
  58.6800          4
  58.7000          1
  58.7200          4
  58.7400          4
  58.7600          5
  58.7800          5
  58.8000          7
  58.8200          4
  58.8400          4
  58.8600          4
  58.8800          2
  58.9000          3
  58.9200          7
  58.9400          2
  58.9600          2
  58.9800          9
  59.0000          5
  59.0200          5
  59.0400          4
  59.0600          6
  59.0800          4
  59.1000          2
  59.1200          3
  59.1400          5
  59.1600          3
  59.1800          1
  59.2000          1
  59.2200          3
  59.2400          3
  59.2600          6
  59.2800          4
  59.3000          1
  59.3200          2
  59.3400          2
  59.3600          5
  59.3800          3
  59.4000          5
  59.4200          7
  59.4400          7
  59.4600          2
  59.4800          4
  59.5000          5
  59.5200          4
  59.5400          3
  59.5600          7
  59.5800          4
  59.6000          2
  59.6200          3
  59.6400          0
  59.6600          3
  59.6800          5
  59.7000          4
  59.7200          6
  59.7400          3
  59.7600          2
  59.7800          2
  59.8000          6
  59.8200          0
  59.8400          3
  59.8600          5
  59.8800          5
  59.9000          3
  59.9200          6
  59.9400          4
  59.9600          3
  59.9800          9
  60.0000          4
  60.0200          2
  60.0400          4
  60.0600          2
  60.0800          2
  60.1000          2
  60.1200          4
  60.1400          3
  60.1600          2
  60.1800          6
  60.2000          5
  60.2200          0
  60.2400          4
  60.2600          7
  60.2800          5
  60.3000          8
  60.3200          2
  60.3400          4
  60.3600          2
  60.3800          3
  60.4000          3
  60.4200          1
  60.4400          7
  60.4600          6
  60.4800          4
  60.5000          3
  60.5200          4
  60.5400          3
  60.5600          8
  60.5800          5
  60.6000          6
  60.6200          2
  60.6400          4
  60.6600          4
  60.6800          7
  60.7000          3
  60.7200          0
  60.7400          0
  60.7600          5
  60.7800          1
  60.8000          3
  60.8200          1
  60.8400          1
  60.8600          1
  60.8800          5
  60.9000          5
  60.9200          3
  60.9400          4
  60.9600          3
  60.9800          2
  61.0000          2
  61.0200          3
  61.0400          2
  61.0600          4
  61.0800          2
  61.1000          3
  61.1200          3
  61.1400          4
  61.1600          3
  61.1800          2
  61.2000          3
  61.2200          3
  61.2400          4
  61.2600          1
  61.2800          5
  61.3000          6
  61.3200          4
  61.3400          4
  61.3600          4
  61.3800          2
  61.4000          1
  61.4200          3
  61.4400          4
  61.4600          3
  61.4800          0
  61.5000          3
  61.5200          1
  61.5400          3
  61.5600          6
  61.5800          2
  61.6000          6
  61.6200          2
  61.6400          3
  61.6600          1
  61.6800          4
  61.7000          6
  61.7200          1
  61.7400          3
  61.7600          3
  61.7800          4
  61.8000          2
  61.8200          3
  61.8400          3
  61.8600          5
  61.8800          6
  61.9000          4
  61.9200          2
  61.9400          3
  61.9600          3
  61.9800          3
  62.0000          3
  62.0200          4
  62.0400          5
  62.0600          4
  62.0800          4
  62.1000          7
  62.1200          4
  62.1400          5
  62.1600          3
  62.1800          4
  62.2000          6
  62.2200          6
  62.2400          2
  62.2600          3
  62.2800          4
  62.3000          7
  62.3200          4
  62.3400          6
  62.3600          3
  62.3800          6
  62.4000          3
  62.4200          3
  62.4400          3
  62.4600          2
  62.4800         10
  62.5000          2
  62.5200          7
  62.5400          2
  62.5600          5
  62.5800          5
  62.6000          1
  62.6200          7
  62.6400          3
  62.6600          5
  62.6800          3
  62.7000          5
  62.7200          1
  62.7400          0
  62.7600          5
  62.7800          1
  62.8000          6
  62.8200          1
  62.8400          5
  62.8600          3
  62.8800          4
  62.9000          2
  62.9200          3
  62.9400          5
  62.9600          3
  62.9800          6
  63.0000          4
  63.0200          9
  63.0400          3
  63.0600          5
  63.0800          4
  63.1000          2
  63.1200          6
  63.1400          9
  63.1600          5
  63.1800          4
  63.2000          4
  63.2200          3
  63.2400          2
  63.2600          6
  63.2800          4
  63.3000          5
  63.3200          2
  63.3400          3
  63.3600          5
  63.3800          4
  63.4000          4
  63.4200          5
  63.4400          9
  63.4600          3
  63.4800          5
  63.5000          5
  63.5200          1
  63.5400          2
  63.5600          5
  63.5800          4
  63.6000          6
  63.6200          3
  63.6400          1
  63.6600          6
  63.6800          7
  63.7000          7
  63.7200          1
  63.7400          1
  63.7600          3
  63.7800          3
  63.8000          4
  63.8200          6
  63.8400          1
  63.8600          1
  63.8800          2
  63.9000          2
  63.9200          5
  63.9400          4
  63.9600          2
  63.9800          6
  64.0000          5
  64.0200          3
  64.0400          1
  64.0600          5
  64.0800          2
  64.1000          4
  64.1200          5
  64.1400          2
  64.1600          3
  64.1800          3
  64.2000          3
  64.2200          4
  64.2400          2
  64.2600          3
  64.2800          2
  64.3000          0
  64.3200          2
  64.3400          2
  64.3600          2
  64.3800          4
  64.4000          6
  64.4200          5
  64.4400          3
  64.4600          2
  64.4800          3
  64.5000          1
  64.5200          3
  64.5400          3
  64.5600          7
  64.5800          3
  64.6000          4
  64.6200          3
  64.6400          4
  64.6600          2
  64.6800          6
  64.7000          0
  64.7200          1
  64.7400          5
  64.7600          4
  64.7800          2
  64.8000          3
  64.8200          5
  64.8400          2
  64.8600          4
  64.8800          3
  64.9000          3
  64.9200          4
  64.9400          4
  64.9600          4
  64.9800          3
  65.0000          5
  65.0200          2
  65.0400          6
  65.0600          5
  65.0800          7
  65.1000          6
  65.1200          4
  65.1400          3
  65.1600          8
  65.1800          4
  65.2000          2
  65.2200         10
  65.2400          2
  65.2600          5
  65.2800          2
  65.3000          4
  65.3200          3
  65.3400          3
  65.3600          8
  65.3800          3
  65.4000          7
  65.4200          3
  65.4400          3
  65.4600          1
  65.4800          3
  65.5000          3
  65.5200          6
  65.5400          5
  65.5600          2
  65.5800          4
  65.6000          4
  65.6200          4
  65.6400          4
  65.6600          1
  65.6800          4
  65.7000          4
  65.7200          3
  65.7400          9
  65.7600          8
  65.7800          2
  65.8000          8
  65.8200          3
  65.8400          5
  65.8600          3
  65.8800          6
  65.9000          3
  65.9200          3
  65.9400          2
  65.9600          3
  65.9800          5
  66.0000          3
  66.0200          4
  66.0400          6
  66.0600          4
  66.0800          5
  66.1000          3
  66.1200          3
  66.1400          3
  66.1600          4
  66.1800          4
  66.2000          3
  66.2200         10
  66.2400          6
  66.2600          5
  66.2800          3
  66.3000          5
  66.3200          5
  66.3400          2
  66.3600          3
  66.3800          5
  66.4000          4
  66.4200          6
  66.4400          2
  66.4600          3
  66.4800          7
  66.5000         10
  66.5200          6
  66.5400          5
  66.5600          2
  66.5800          2
  66.6000          2
  66.6200          5
  66.6400          4
  66.6600          4
  66.6800          3
  66.7000          9
  66.7200          4
  66.7400          2
  66.7600          6
  66.7800          6
  66.8000          5
  66.8200          2
  66.8400          5
  66.8600          6
  66.8800          5
  66.9000          8
  66.9200          3
  66.9400          2
  66.9600          4
  66.9800          7
  67.0000          6
  67.0200          7
  67.0400          6
  67.0600          2
  67.0800          8
  67.1000          4
  67.1200          4
  67.1400          6
  67.1600          2
  67.1800          6
  67.2000          0
  67.2200          5
  67.2400          7
  67.2600          5
  67.2800          3
  67.3000          5
  67.3200          5
  67.3400          7
  67.3600          3
  67.3800          4
  67.4000          0
  67.4200          6
  67.4400          8
  67.4600          0
  67.4800          4
  67.5000          6
  67.5200          4
  67.5400          2
  67.5600          4
  67.5800          4
  67.6000          4
  67.6200          4
  67.6400          8
  67.6600          5
  67.6800          9
  67.7000          4
  67.7200          6
  67.7400          7
  67.7600          4
  67.7800          6
  67.8000          8
  67.8200          5
  67.8400          6
  67.8600          4
  67.8800          6
  67.9000          5
  67.9200          3
  67.9400          6
  67.9600          4
  67.9800          2
  68.0000          9
  68.0200          5
  68.0400          4
  68.0600          5
  68.0800          6
  68.1000          4
  68.1200          4
  68.1400          5
  68.1600          3
  68.1800          2
  68.2000          8
  68.2200          9
  68.2400          9
  68.2600          4
  68.2800          2
  68.3000          4
  68.3200          2
  68.3400          2
  68.3600          4
  68.3800          6
  68.4000          5
  68.4200          5
  68.4400          7
  68.4600          3
  68.4800          8
  68.5000          7
  68.5200          5
  68.5400          6
  68.5600          8
  68.5800          3
  68.6000          8
  68.6200          6
  68.6400          6
  68.6600          6
  68.6800          5
  68.7000          5
  68.7200         12
  68.7400          6
  68.7600          7
  68.7800          4
  68.8000          7
  68.8200          7
  68.8400          4
  68.8600          2
  68.8800          5
  68.9000          6
  68.9200          7
  68.9400          9
  68.9600          4
  68.9800          8
  69.0000         10
  69.0200          5
  69.0400          6
  69.0600          4
  69.0800          5
  69.1000          5
  69.1200          2
  69.1400          2
  69.1600          6
  69.1800          4
  69.2000          8
  69.2200          7
  69.2400          7
  69.2600         10
  69.2800          5
  69.3000          4
  69.3200          4
  69.3400          6
  69.3600          8
  69.3800          4
  69.4000          5
  69.4200          5
  69.4400          9
  69.4600          4
  69.4800          8
  69.5000          3
  69.5200          4
  69.5400          5
  69.5600          4
  69.5800          5
  69.6000          6
  69.6200          7
  69.6400          4
  69.6600          8
  69.6800          6
  69.7000          3
  69.7200          4
  69.7400          6
  69.7600          8
  69.7800          5
  69.8000          5
  69.8200          5
  69.8400          3
  69.8600          4
  69.8800          6
  69.9000          4
  69.9200          5
  69.9400          4
  69.9600          2
  69.9800          3
  70.0000          6
