Frequenz/GHz	Spannung/V
0.250000	0.029798
0.295000	0.017191
0.340000	0.029012
0.385000	0.046204
0.430000	0.063587
0.475000	0.042149
0.520000	0.032621
0.565000	0.066251
0.610000	0.060322
0.655000	0.076657
0.700000	0.068301
0.745000	0.075930
0.790000	0.067677
0.835000	0.065310
0.880000	0.066551
0.925000	0.098818
0.970000	0.087431
1.015000	0.056810
1.060000	0.076739
1.105000	0.096826
1.150000	0.105176
1.195000	0.078947
1.240000	0.068906
1.285000	0.094201
1.330000	0.111139
1.375000	0.094161
1.420000	0.099881
1.465000	0.102652
1.510000	0.134396
1.555000	0.108314
1.600000	0.096779
1.645000	0.126583
1.690000	0.133063
1.735000	0.148487
1.780000	0.112981
1.825000	0.110603
1.870000	0.128936
1.915000	0.131424
1.960000	0.125419
2.005000	0.112127
2.050000	0.118255
2.095000	0.131714
2.140000	0.127527
2.185000	0.119378
2.230000	0.122898
2.275000	0.135318
2.320000	0.137788
2.365000	0.130544
2.410000	0.132491
2.455000	0.144303
2.500000	0.151314
2.545000	0.145051
2.590000	0.147964
2.635000	0.159431
2.680000	0.166788
2.725000	0.159812
2.770000	0.152814
2.815000	0.158411
2.860000	0.167889
2.905000	0.164383
2.950000	0.154600
2.995000	0.154113
3.040000	0.162026
3.085000	0.162999
3.130000	0.154144
3.175000	0.150393
3.220000	0.156751
3.265000	0.161547
3.310000	0.157761
3.355000	0.153080
3.400000	0.162400
3.445000	0.157339
3.490000	0.160372
3.535000	0.164202
3.580000	0.161819
3.625000	0.165956
3.670000	0.171046
3.715000	0.168145
3.760000	0.163251
3.805000	0.165323
3.850000	0.169137
3.895000	0.166223
3.940000	0.159767
3.985000	0.157758
4.030000	0.160651
4.075000	0.158283
4.120000	0.151438
4.165000	0.149438
4.210000	0.152008
4.255000	0.152355
4.300000	0.150067
4.345000	0.149640
4.390000	0.152653
4.435000	0.156140
4.480000	0.157313
4.525000	0.156592
4.570000	0.160802
4.615000	0.165677
4.660000	0.167792
4.705000	0.165391
4.750000	0.165820
4.795000	0.170849
4.840000	0.172871
4.885000	0.169212
4.930000	0.166846
4.975000	0.168807
5.020000	0.170448
5.065000	0.167300
5.110000	0.162632
5.155000	0.161416
5.200000	0.162622
5.245000	0.161695
5.290000	0.157685
5.335000	0.155283
5.380000	0.157441
5.425000	0.160030
5.470000	0.159021
5.515000	0.157861
5.560000	0.160386
5.605000	0.163176
5.650000	0.163126
5.695000	0.162978
5.740000	0.164333
5.785000	0.165422
5.830000	0.164966
5.875000	0.164369
5.920000	0.163398
5.965000	0.161323
6.010000	0.158764
6.055000	0.156292
6.100000	0.153476
6.145000	0.149820
6.190000	0.146988
6.235000	0.145637
6.280000	0.143939
6.325000	0.142667
6.370000	0.142815
6.415000	0.143523
6.460000	0.144405
6.505000	0.146146
6.550000	0.148434
6.595000	0.150424
6.640000	0.152819
6.685000	0.155096
6.730000	0.157004
6.775000	0.159329
6.820000	0.161180
6.865000	0.161756
6.910000	0.161534
6.955000	0.161690
7.000000	0.161283
7.045000	0.159283
7.090000	0.157104
7.135000	0.156038
7.180000	0.154441
7.225000	0.152682
7.270000	0.152590
7.315000	0.152383
7.360000	0.150659
7.405000	0.151071
7.450000	0.153631
7.495000	0.153252
7.540000	0.152374
7.585000	0.154824
7.630000	0.157843
7.675000	0.158630
7.720000	0.159474
7.765000	0.161086
7.810000	0.162730
7.855000	0.164039
7.900000	0.164358
7.945000	0.163051
7.990000	0.161040
8.035000	0.161514
8.080000	0.161958
8.125000	0.156860
8.170000	0.153184
8.215000	0.156244
8.260000	0.156742
8.305000	0.150279
8.350000	0.148903
8.395000	0.152277
8.440000	0.151179
8.485000	0.148063
8.530000	0.147449
8.575000	0.149650
8.620000	0.152237
8.665000	0.152426
8.710000	0.150535
8.755000	0.152037
8.800000	0.157889
8.845000	0.159360
8.890000	0.154369
8.935000	0.154894
8.980000	0.162944
9.025000	0.163176
9.070000	0.156202
9.115000	0.157106
9.160000	0.162322
9.205000	0.160196
9.250000	0.156227
9.295000	0.156338
9.340000	0.157769
9.385000	0.158101
9.430000	0.156854
9.475000	0.154139
9.520000	0.153847
9.565000	0.155812
9.610000	0.155193
9.655000	0.152025
9.700000	0.152237
9.745000	0.155032
9.790000	0.155024
9.835000	0.153787
9.880000	0.156072
9.925000	0.157694
9.970000	0.157354
10.015000	0.159374
10.060000	0.160501
10.105000	0.158485
10.150000	0.160379
10.195000	0.163131
10.240000	0.160015
10.285000	0.157829
10.330000	0.159568
10.375000	0.159022
10.420000	0.155063
10.465000	0.153555
10.510000	0.153839
10.555000	0.152771
10.600000	0.150978
10.645000	0.149903
10.690000	0.148538
10.735000	0.149242
10.780000	0.152630
10.825000	0.154401
10.870000	0.154893
10.915000	0.158528
10.960000	0.163520
11.005000	0.163269
11.050000	0.160912
11.095000	0.162698
11.140000	0.164908
11.185000	0.163391
11.230000	0.160630
11.275000	0.159939
11.320000	0.159943
11.365000	0.158912
11.410000	0.156312
11.455000	0.152394
11.500000	0.150098
11.545000	0.150980
11.590000	0.150472
11.635000	0.147225
11.680000	0.146441
11.725000	0.150413
11.770000	0.152849
11.815000	0.151121
11.860000	0.152225
11.905000	0.156644
11.950000	0.157450
11.995000	0.154995
12.040000	0.155337
12.085000	0.157380
12.130000	0.158193
12.175000	0.157348
12.220000	0.156237
12.265000	0.157086
12.310000	0.158391
12.355000	0.155976
12.400000	0.153378
12.445000	0.151854
12.490000	0.150113
12.535000	0.148017
12.580000	0.145018
12.625000	0.142261
12.670000	0.141613
12.715000	0.140791
12.760000	0.139928
12.805000	0.141541
12.850000	0.142575
12.895000	0.143129
12.940000	0.146272
12.985000	0.148411
13.030000	0.148025
13.075000	0.150049
13.120000	0.153304
13.165000	0.153718
13.210000	0.152786
13.255000	0.152106
13.300000	0.150671
13.345000	0.148947
13.390000	0.147073
13.435000	0.143955
13.480000	0.140140
13.525000	0.140292
13.570000	0.142843
13.615000	0.139554
13.660000	0.135969
13.705000	0.140725
13.750000	0.145087
13.795000	0.141183
13.840000	0.140497
13.885000	0.146010
13.930000	0.148405
13.975000	0.146419
14.020000	0.146162
14.065000	0.147626
14.110000	0.149136
14.155000	0.148955
14.200000	0.146696
14.245000	0.143904
14.290000	0.145824
14.335000	0.148974
14.380000	0.144347
14.425000	0.139907
14.470000	0.144836
14.515000	0.148779
14.560000	0.142233
14.605000	0.138147
14.650000	0.142196
14.695000	0.143696
14.740000	0.139157
14.785000	0.135642
14.830000	0.136021
14.875000	0.137781
14.920000	0.138003
14.965000	0.134753
15.010000	0.133013
15.055000	0.137457
15.100000	0.141675
15.145000	0.137857
15.190000	0.136577
15.235000	0.143571
15.280000	0.148673
15.325000	0.145842
15.370000	0.145102
15.415000	0.149920
15.460000	0.152517
15.505000	0.148827
15.550000	0.145397
15.595000	0.144714
15.640000	0.144158
15.685000	0.142742
15.730000	0.139982
15.775000	0.138025
15.820000	0.140972
15.865000	0.143529
15.910000	0.139420
15.955000	0.138475
16.000000	0.142120
16.045000	0.141335
16.090000	0.138401
16.135000	0.138797
16.180000	0.139523
16.225000	0.139750
16.270000	0.139860
16.315000	0.140239
16.360000	0.140964
16.405000	0.139818
16.450000	0.140484
16.495000	0.142509
16.540000	0.139778
16.585000	0.137388
16.630000	0.141490
16.675000	0.142133
16.720000	0.137623
16.765000	0.137540
16.810000	0.138705
16.855000	0.135532
16.900000	0.131973
16.945000	0.128322
16.990000	0.124467
17.035000	0.121057
17.080000	0.119903
17.125000	0.120422
17.170000	0.117864
17.215000	0.117863
17.260000	0.126395
17.305000	0.130670
17.350000	0.127106
17.395000	0.132187
17.440000	0.142527
17.485000	0.141984
17.530000	0.138934
17.575000	0.142459
17.620000	0.145382
17.665000	0.143538
17.710000	0.139871
17.755000	0.135992
17.800000	0.133314
17.845000	0.132153
17.890000	0.129035
17.935000	0.122162
17.980000	0.119365
18.025000	0.125277
18.070000	0.126772
18.115000	0.120721
18.160000	0.125359
18.205000	0.138614
18.250000	0.139764
